File: ZnO_STD_Fendas/ZnO_STD_F.ASC
*TYPE		=  Raw
*CLASS		=  ASCII CLASS
*SAMPLE		=  ZnO_STD_F
*COMMENT	=  ZnO_STD_FINO
*FNAME		=  ZnO_STD_F.raw
*DATE		=  16-Aug-13 11:57

*GROUP_COUNT	=  1
*GONIO		=  Ultima IV, 285
*ATTACHMENT	=  Standard Att.
*ASC		=  0, 0, 0.000000, 0.000000
*I_MONOCHRO	=  CBO, 0.000000
*C_MONOCHRO	=  Fixed Monochro.(U4), 3.354
*SLIT_NAME	=  0, DivSlit
*SLIT_NAME	=  1, DivH.L.Slit
*SLIT_NAME	=  2, SctSlit
*SLIT_NAME	=  3, RecSlit
*SLIT_NAME	=  4, Monochro RS
*COUNTER	=  Scintillation counter, 0
*POS_FORMAT	=  0
*SCAN_AXIS	=  2theta/theta
*MEAS_MODE	=  FT
*TARGET		=  29
*XRAY_CHAR	=  K-ALPHA1
*WAVE_LENGTH1	=  1.54056
*WAVE_LENGTH2	=  1.5444
*THICKNESS	=  0, 0.000000
*MU		=  0, 0.000000
*SCAN_MODE	=  2theta/theta
*SPEED_DIM	=  sec./step(FT)
*XUNIT		=  deg.
*YUNIT		=  counts
*SCALE_MODE	=  1
*REP_COUNT	=  1
*SE_COUNT	=  0
*STD_MATERIAL	=  Unknown, Unknown, 0.000000, 0.000000, 0.000000, 0.000000, 0.000000, 0.000000
*LATT_CONS	=  0, Unknown, Unknown, 0.000000, 0.000000, 0.000000, 0.000000, 0.000000, 0.000000
*SEC_COUNT	=  1
*TSPEC_SIZE	=  0
*EXTRA_SIZE	=  0
*MEMO		=

*BEGIN
*GROUP		=  0
*START		=  27
*STOP		=  80
*STEP		=  0.02
*OFFSET		=  0.000000
*SPEED		=  7
*SLIT_SPEC	=  0, 1/6deg., 0.58, 10
*SLIT_SPEC	=  1, 10mm, 8, 10
*SLIT_SPEC	=  2, 1/6deg., 0.22, 20
*SLIT_SPEC	=  3, 0.15mm, 0.15, 20
*SLIT_SPEC	=  4, No Use, 0.000000, 20
*KV		=  40
*MA		=  30
*LOW		=  0.000000
*HIGH		=  0.000000
*CTEMPER	=  0, 0.000000
*CTEMPER	=  1, 0.000000
*CTEMPER	=  2, 0.000000
*PAREX		=  0, 0.000000
*PAREX		=  1, 0.000000
*PAREX		=  2, 0.000000
*PAREX		=  3, 0.000000
*PAREX		=  4, 0.000000
*PAREX		=  5, 0.000000
*PAREX		=  6, 0.000000
*PAREX		=  7, 0.000000
*PAREX		=  8, 0.000000
*PAREX		=  9, 0.000000
*PAREX		=  10, 0.000000
*PAREX		=  11, 0.000000
*PAREX		=  12, 0.000000
*PAREX		=  13, 0.000000
*PAREX		=  14, 0.000000
*PAREX		=  15, 0.000000
*FULL_SCALE	=  100
*INDEX		=  0, 0, 0
*COUNT		=  2651
13, 5, 9, 9
13, 10, 8, 12
10, 10, 16, 10
11, 10, 10, 14
6, 13, 15, 14
17, 14, 14, 10
16, 17, 9, 14
12, 14, 9, 11
22, 10, 13, 10
6, 16, 12, 16
17, 12, 9, 10
11, 15, 10, 12
7, 17, 18, 14
11, 10, 11, 13
12, 19, 16, 17
12, 17, 18, 19
26, 21, 19, 18
34, 32, 20, 24
65, 65, 69, 58
387, 548, 704, 962
4427, 5056, 5045, 3074
164, 121, 100, 76
34, 25, 25, 26
24, 27, 28, 29
18, 27, 13, 20
18, 23, 21, 17
16, 15, 15, 22
21, 16, 18, 29
19, 22, 25, 26
41, 48, 32, 48
202, 257, 410, 527
2412, 2460, 2761, 2027
124, 97, 98, 54
33, 46, 35, 38
22, 25, 33, 16
27, 26, 24, 41
52, 65, 68, 54
154, 154, 168, 195
1810, 2508, 3433, 4782
3424, 2060, 1344, 1005
136, 126, 112, 89
41, 51, 45, 28
20, 27, 18, 21
22, 23, 22, 17
18, 19, 17, 14
18, 18, 17, 21
20, 13, 18, 18
11, 21, 11, 15
18, 11, 18, 18
16, 9, 16, 11
16, 17, 14, 13
10, 12, 9, 21
10, 12, 16, 9
13, 17, 14, 14
16, 16, 10, 16
10, 12, 11, 12
15, 12, 11, 15
10, 8, 12, 11
6, 11, 15, 14
15, 6, 14, 7
11, 11, 12, 11
12, 16, 14, 26
14, 8, 18, 9
10, 13, 15, 14
14, 14, 15, 13
4, 9, 13, 22
13, 11, 18, 11
16, 12, 10, 14
12, 8, 15, 13
14, 19, 14, 13
10, 15, 14, 14
11, 9, 22, 9
21, 16, 18, 11
17, 8, 9, 8
10, 9, 13, 14
12, 19, 13, 15
10, 11, 16, 9
12, 19, 25, 14
24, 8, 15, 18
13, 22, 14, 15
18, 9, 15, 22
13, 21, 13, 19
20, 22, 15, 20
24, 18, 26, 20
54, 53, 73, 84
363, 522, 772, 1157
1249, 994, 720, 486
60, 55, 50, 61
22, 24, 17, 31
19, 15, 21, 15
7, 11, 9, 21
17, 20, 14, 11
8, 13, 15, 9
16, 16, 10, 15
7, 13, 14, 21
15, 16, 8, 13
11, 11, 14, 13
13, 11, 18, 14
12, 14, 12, 8
17, 20, 17, 13
15, 8, 11, 14
15, 16, 16, 14
25, 17, 13, 8
15, 22, 14, 14
9, 2, 9, 13
15, 11, 7, 13
17, 11, 8, 8
13, 18, 12, 12
17, 10, 9, 11
17, 13, 11, 9
18, 13, 19, 20
15, 12, 10, 13
15, 15, 15, 11
13, 19, 16, 12
13, 23, 16, 19
16, 12, 15, 16
8, 13, 10, 19
14, 13, 20, 34
19, 16, 22, 22
24, 23, 33, 23
34, 30, 36, 30
42, 46, 44, 45
125, 137, 160, 177
1573, 1972, 2370, 2299
959, 686, 513, 402
94, 87, 66, 70
45, 29, 32, 32
31, 19, 30, 18
29, 25, 24, 17
20, 13, 18, 14
20, 24, 13, 20
13, 9, 16, 15
19, 21, 20, 14
18, 25, 25, 21
12, 21, 20, 17
14, 13, 20, 27
14, 21, 16, 24
17, 12, 28, 16
23, 19, 13, 15
20, 17, 17, 21
19, 20, 15, 18
20, 13, 19, 16
22, 21, 15, 30
20, 22, 20, 27
21, 20, 30, 20
10, 28, 22, 30
32, 37, 28, 24
38, 42, 46, 41
113, 124, 127, 157
986, 1319, 1781, 2073
1311, 1193, 1012, 782
104, 89, 87, 81
42, 56, 39, 33
35, 28, 35, 24
31, 19, 16, 16
15, 19, 29, 29
20, 19, 20, 14
21, 22, 19, 25
16, 30, 17, 35
28, 28, 17, 16
23, 33, 12, 16
22, 25, 26, 23
32, 32, 23, 37
46, 60, 66, 84
698, 581, 396, 273
171, 102, 85, 76
43, 42, 39, 42
29, 29, 40, 36
54, 44, 44, 44
101, 95, 108, 128
463, 619, 868, 1154
877, 933, 1120, 1400
180, 169, 140, 134
70, 59, 46, 58
79, 74, 90, 111
591, 719, 839, 832
485, 430, 427, 338
85, 58, 62, 76
31, 25, 24, 30
21, 30, 23, 26
24, 19, 19, 28
19, 19, 13, 17
13, 13, 20, 17
13, 18, 10, 23
17, 12, 21, 17
10, 20, 13, 21
16, 22, 14, 18
16, 13, 17, 19
18, 19, 20, 21
25, 26, 40, 54
109, 97, 75, 96
45, 36, 37, 29
28, 24, 18, 19
11, 16, 8, 10
13, 7, 10, 18
15, 17, 14, 5
12, 20, 14, 14
14, 13, 13, 13
16, 11, 11, 12
16, 17, 16, 15
15, 19, 10, 19
9, 12, 18, 10
6, 15, 11, 21
14, 14, 13, 8
16, 17, 20, 11
20, 17, 21, 13
24, 24, 19, 23
33, 35, 41, 44
272, 302, 253, 248
169, 132, 131, 100
34, 33, 20, 29
21, 23, 9, 22
15, 12, 13, 10
18, 15, 17, 14
16, 8, 17, 14
13, 11, 8, 14
11, 10, 13, 10
11, 3, 11, 12
12, 15, 9, 16
10, 17, 16, 13
11, 11, 7, 12
16, 19, 14
*END

*EOF