File: ZnO_STD_Fendas/ZnO_STD_101_G.ASC
*TYPE		=  Raw
*CLASS		=  ASCII CLASS
*SAMPLE		=  ZnO_STD_101_G
*COMMENT	=  ZnO_STD_101_GROSSO
*FNAME		=  ZnO_STD_101_G.raw
*DATE		=  15-Aug-13 15:52

*GROUP_COUNT	=  1
*GONIO		=  Ultima IV, 285
*ATTACHMENT	=  Standard Att.
*ASC		=  0, 0, 0.000000, 0.000000
*I_MONOCHRO	=  CBO, 0.000000
*C_MONOCHRO	=  Fixed Monochro.(U4), 3.354
*SLIT_NAME	=  0, DivSlit
*SLIT_NAME	=  1, DivH.L.Slit
*SLIT_NAME	=  2, SctSlit
*SLIT_NAME	=  3, RecSlit
*SLIT_NAME	=  4, Monochro RS
*COUNTER	=  Scintillation counter, 0
*POS_FORMAT	=  0
*SCAN_AXIS	=  2theta/theta
*MEAS_MODE	=  FT
*TARGET		=  29
*XRAY_CHAR	=  K-ALPHA1
*WAVE_LENGTH1	=  1.54056
*WAVE_LENGTH2	=  1.5444
*THICKNESS	=  0, 0.000000
*MU		=  0, 0.000000
*SCAN_MODE	=  2theta/theta
*SPEED_DIM	=  sec./step(FT)
*XUNIT		=  deg.
*YUNIT		=  counts
*SCALE_MODE	=  1
*REP_COUNT	=  1
*SE_COUNT	=  0
*STD_MATERIAL	=  Unknown, Unknown, 0.000000, 0.000000, 0.000000, 0.000000, 0.000000, 0.000000
*LATT_CONS	=  0, Unknown, Unknown, 0.000000, 0.000000, 0.000000, 0.000000, 0.000000, 0.000000
*SEC_COUNT	=  1
*TSPEC_SIZE	=  0
*EXTRA_SIZE	=  0
*MEMO		=

*BEGIN
*GROUP		=  0
*START		=  35.2
*STOP		=  37.7
*STEP		=  0.02
*OFFSET		=  0.000000
*SPEED		=  5
*SLIT_SPEC	=  0, 2/3deg., 2.33, 10
*SLIT_SPEC	=  1, 10mm, 8, 10
*SLIT_SPEC	=  2, 2/3deg., 0.89, 20
*SLIT_SPEC	=  3, 0.6mm, 0.6, 20
*SLIT_SPEC	=  4, No Use, 0.000000, 20
*KV		=  40
*MA		=  30
*LOW		=  0.000000
*HIGH		=  0.000000
*CTEMPER	=  0, 0.000000
*CTEMPER	=  1, 0.000000
*CTEMPER	=  2, 0.000000
*PAREX		=  0, 0.000000
*PAREX		=  1, 0.000000
*PAREX		=  2, 0.000000
*PAREX		=  3, 0.000000
*PAREX		=  4, 0.000000
*PAREX		=  5, 0.000000
*PAREX		=  6, 0.000000
*PAREX		=  7, 0.000000
*PAREX		=  8, 0.000000
*PAREX		=  9, 0.000000
*PAREX		=  10, 0.000000
*PAREX		=  11, 0.000000
*PAREX		=  12, 0.000000
*PAREX		=  13, 0.000000
*PAREX		=  14, 0.000000
*PAREX		=  15, 0.000000
*FULL_SCALE	=  100
*INDEX		=  0, 0, 0
*COUNT		=  126
286, 304, 298, 289
298, 333, 304, 310
351, 347, 358, 393
372, 356, 373, 401
419, 409, 434, 458
475, 497, 497, 576
519, 588, 671, 672
762, 738, 850, 936
1034, 1131, 1369, 1524
1801, 2221, 2715, 3200
4121, 5243, 6574, 8392
10805, 14266, 19573, 26516
37270, 51448, 63893, 71228
69792, 62605, 54291, 47433
42887, 36237, 28062, 19409
12909, 8763, 6281, 4829
3820, 3050, 2457, 2063
1741, 1533, 1308, 1196
968, 847, 799, 779
689, 648, 586, 566
536, 475, 458, 426
376, 392, 359, 351
314, 320, 310, 300
260, 273, 265, 224
243, 234, 228, 184
219, 192, 174, 187
184, 183, 185, 177
166, 164, 162, 145
150, 181, 154, 151
160, 149, 148, 146
157, 140, 168, 163
157, 140
*END

*EOF