File: ZnO_STD_Fendas/ZnO_STD_202_M.ASC
*TYPE		=  Raw
*CLASS		=  ASCII CLASS
*SAMPLE		=  ZnO_STD_202_M
*COMMENT	=  ZnO_STD_202_MÉDIO
*FNAME		=  ZnO_STD_202_M.raw
*DATE		=  16-Aug-13 18:11

*GROUP_COUNT	=  1
*GONIO		=  Ultima IV, 285
*ATTACHMENT	=  Standard Att.
*ASC		=  0, 0, 0.000000, 0.000000
*I_MONOCHRO	=  CBO, 0.000000
*C_MONOCHRO	=  Fixed Monochro.(U4), 3.354
*SLIT_NAME	=  0, DivSlit
*SLIT_NAME	=  1, DivH.L.Slit
*SLIT_NAME	=  2, SctSlit
*SLIT_NAME	=  3, RecSlit
*SLIT_NAME	=  4, Monochro RS
*COUNTER	=  Scintillation counter, 0
*POS_FORMAT	=  0
*SCAN_AXIS	=  2theta/theta
*MEAS_MODE	=  FT
*TARGET		=  29
*XRAY_CHAR	=  K-ALPHA1
*WAVE_LENGTH1	=  1.54056
*WAVE_LENGTH2	=  1.5444
*THICKNESS	=  0, 0.000000
*MU		=  0, 0.000000
*SCAN_MODE	=  2theta/theta
*SPEED_DIM	=  sec./step(FT)
*XUNIT		=  deg.
*YUNIT		=  counts
*SCALE_MODE	=  1
*REP_COUNT	=  1
*SE_COUNT	=  0
*STD_MATERIAL	=  Unknown, Unknown, 0.000000, 0.000000, 0.000000, 0.000000, 0.000000, 0.000000
*LATT_CONS	=  0, Unknown, Unknown, 0.000000, 0.000000, 0.000000, 0.000000, 0.000000, 0.000000
*SEC_COUNT	=  1
*TSPEC_SIZE	=  0
*EXTRA_SIZE	=  0
*MEMO		=

*BEGIN
*GROUP		=  0
*START		=  75.8
*STOP		=  78.2
*STEP		=  0.02
*OFFSET		=  0.000000
*SPEED		=  120
*SLIT_SPEC	=  0, 1/3deg., 1.16, 10
*SLIT_SPEC	=  1, 10mm, 8, 10
*SLIT_SPEC	=  2, 1/3deg., 0.45, 20
*SLIT_SPEC	=  3, 0.3mm, 0.3, 20
*SLIT_SPEC	=  4, No Use, 0.000000, 20
*KV		=  40
*MA		=  30
*LOW		=  0.000000
*HIGH		=  0.000000
*CTEMPER	=  0, 0.000000
*CTEMPER	=  1, 0.000000
*CTEMPER	=  2, 0.000000
*PAREX		=  0, 0.000000
*PAREX		=  1, 0.000000
*PAREX		=  2, 0.000000
*PAREX		=  3, 0.000000
*PAREX		=  4, 0.000000
*PAREX		=  5, 0.000000
*PAREX		=  6, 0.000000
*PAREX		=  7, 0.000000
*PAREX		=  8, 0.000000
*PAREX		=  9, 0.000000
*PAREX		=  10, 0.000000
*PAREX		=  11, 0.000000
*PAREX		=  12, 0.000000
*PAREX		=  13, 0.000000
*PAREX		=  14, 0.000000
*PAREX		=  15, 0.000000
*FULL_SCALE	=  1000
*INDEX		=  0, 0, 0
*COUNT		=  121
773, 783, 813, 778
865, 790, 807, 832
801, 803, 812, 805
765, 761, 860, 884
815, 834, 863, 858
871, 836, 901, 929
890, 924, 957, 1029
974, 1001, 1070, 1071
1161, 1221, 1216, 1302
1393, 1435, 1502, 1603
1734, 1778, 1946, 1908
2163, 2411, 2838, 3093
3566, 4089, 4930, 6302
8099, 10365, 13693, 17675
20927, 21668, 20211, 16502
12883, 10459, 8685, 8088
8272, 8858, 10049, 11392
11977, 11354, 9842, 7589
5938, 4563, 3938, 3240
2813, 2422, 2111, 1924
1832, 1657, 1545, 1411
1384, 1266, 1245, 1087
1165, 1002, 1031, 981
966, 989, 955, 913
952, 898, 887, 819
817, 837, 828, 820
792, 770, 795, 809
758, 702, 811, 762
793, 749, 695, 714
746, 752, 708, 717
771
*END

*EOF