File: ZnO_STD_Fendas/ZnO_STD_101_M.ASC
*TYPE		=  Raw
*CLASS		=  ASCII CLASS
*SAMPLE		=  ZnO_STD_101_M
*COMMENT	=  ZnO_STD_101_MÉDIO
*FNAME		=  ZnO_STD_101_M.raw
*DATE		=  16-Aug-13 17:28

*GROUP_COUNT	=  1
*GONIO		=  Ultima IV, 285
*ATTACHMENT	=  Standard Att.
*ASC		=  0, 0, 0.000000, 0.000000
*I_MONOCHRO	=  CBO, 0.000000
*C_MONOCHRO	=  Fixed Monochro.(U4), 3.354
*SLIT_NAME	=  0, DivSlit
*SLIT_NAME	=  1, DivH.L.Slit
*SLIT_NAME	=  2, SctSlit
*SLIT_NAME	=  3, RecSlit
*SLIT_NAME	=  4, Monochro RS
*COUNTER	=  Scintillation counter, 0
*POS_FORMAT	=  0
*SCAN_AXIS	=  2theta/theta
*MEAS_MODE	=  FT
*TARGET		=  29
*XRAY_CHAR	=  K-ALPHA1
*WAVE_LENGTH1	=  1.54056
*WAVE_LENGTH2	=  1.5444
*THICKNESS	=  0, 0.000000
*MU		=  0, 0.000000
*SCAN_MODE	=  2theta/theta
*SPEED_DIM	=  sec./step(FT)
*XUNIT		=  deg.
*YUNIT		=  counts
*SCALE_MODE	=  1
*REP_COUNT	=  1
*SE_COUNT	=  0
*STD_MATERIAL	=  Unknown, Unknown, 0.000000, 0.000000, 0.000000, 0.000000, 0.000000, 0.000000
*LATT_CONS	=  0, Unknown, Unknown, 0.000000, 0.000000, 0.000000, 0.000000, 0.000000, 0.000000
*SEC_COUNT	=  1
*TSPEC_SIZE	=  0
*EXTRA_SIZE	=  0
*MEMO		=

*BEGIN
*GROUP		=  0
*START		=  35.2
*STOP		=  37.7
*STEP		=  0.02
*OFFSET		=  0.000000
*SPEED		=  20
*SLIT_SPEC	=  0, 1/3deg., 1.16, 10
*SLIT_SPEC	=  1, 10mm, 8, 10
*SLIT_SPEC	=  2, 1/3deg., 0.45, 20
*SLIT_SPEC	=  3, 0.3mm, 0.3, 20
*SLIT_SPEC	=  4, No Use, 0.000000, 20
*KV		=  40
*MA		=  30
*LOW		=  0.000000
*HIGH		=  0.000000
*CTEMPER	=  0, 0.000000
*CTEMPER	=  1, 0.000000
*CTEMPER	=  2, 0.000000
*PAREX		=  0, 0.000000
*PAREX		=  1, 0.000000
*PAREX		=  2, 0.000000
*PAREX		=  3, 0.000000
*PAREX		=  4, 0.000000
*PAREX		=  5, 0.000000
*PAREX		=  6, 0.000000
*PAREX		=  7, 0.000000
*PAREX		=  8, 0.000000
*PAREX		=  9, 0.000000
*PAREX		=  10, 0.000000
*PAREX		=  11, 0.000000
*PAREX		=  12, 0.000000
*PAREX		=  13, 0.000000
*PAREX		=  14, 0.000000
*PAREX		=  15, 0.000000
*FULL_SCALE	=  100
*INDEX		=  0, 0, 0
*COUNT		=  126
267, 289, 287, 304
316, 321, 308, 333
322, 331, 361, 336
392, 389, 431, 425
412, 459, 448, 489
504, 523, 526, 594
655, 637, 712, 800
810, 895, 967, 1068
1124, 1288, 1501, 1772
2036, 2531, 2973, 3858
4735, 6120, 7573, 9370
11702, 15318, 20371, 28112
38907, 55991, 79869, 102240
106539, 89035, 68392, 61383
61380, 54351, 39370, 24172
15380, 10677, 7751, 6147
4842, 3821, 3284, 2558
2201, 1797, 1568, 1378
1218, 1061, 970, 861
783, 723, 696, 610
608, 574, 499, 486
481, 443, 431, 372
378, 344, 320, 341
282, 297, 300, 259
268, 273, 267, 237
227, 233, 216, 221
237, 233, 216, 221
206, 194, 215, 207
190, 212, 170, 187
174, 175, 174, 198
182, 165, 193, 181
188, 172
*END

*EOF