File: ZnO_STD_Fendas/ZnO_STD_G.ASC
*TYPE		=  Raw
*CLASS		=  ASCII CLASS
*SAMPLE		=  ZnO_STD_G
*COMMENT	=  ZnO_STD_GROSSO
*FNAME		=  ZnO_STD_G.raw
*DATE		=  15-Aug-13 17:06

*GROUP_COUNT	=  1
*GONIO		=  Ultima IV, 285
*ATTACHMENT	=  Standard Att.
*ASC		=  0, 0, 0.000000, 0.000000
*I_MONOCHRO	=  CBO, 0.000000
*C_MONOCHRO	=  Fixed Monochro.(U4), 3.354
*SLIT_NAME	=  0, DivSlit
*SLIT_NAME	=  1, DivH.L.Slit
*SLIT_NAME	=  2, SctSlit
*SLIT_NAME	=  3, RecSlit
*SLIT_NAME	=  4, Monochro RS
*COUNTER	=  Scintillation counter, 0
*POS_FORMAT	=  0
*SCAN_AXIS	=  2theta/theta
*MEAS_MODE	=  FT
*TARGET		=  29
*XRAY_CHAR	=  K-ALPHA1
*WAVE_LENGTH1	=  1.54056
*WAVE_LENGTH2	=  1.5444
*THICKNESS	=  0, 0.000000
*MU		=  0, 0.000000
*SCAN_MODE	=  2theta/theta
*SPEED_DIM	=  sec./step(FT)
*XUNIT		=  deg.
*YUNIT		=  counts
*SCALE_MODE	=  1
*REP_COUNT	=  1
*SE_COUNT	=  0
*STD_MATERIAL	=  Unknown, Unknown, 0.000000, 0.000000, 0.000000, 0.000000, 0.000000, 0.000000
*LATT_CONS	=  0, Unknown, Unknown, 0.000000, 0.000000, 0.000000, 0.000000, 0.000000, 0.000000
*SEC_COUNT	=  1
*TSPEC_SIZE	=  0
*EXTRA_SIZE	=  0
*MEMO		=

*BEGIN
*GROUP		=  0
*START		=  27
*STOP		=  80
*STEP		=  0.02
*OFFSET		=  0.000000
*SPEED		=  7
*SLIT_SPEC	=  0, 2/3deg., 2.33, 10
*SLIT_SPEC	=  1, 10mm, 8, 10
*SLIT_SPEC	=  2, 2/3deg., 0.89, 20
*SLIT_SPEC	=  3, 0.6mm, 0.6, 20
*SLIT_SPEC	=  4, No Use, 0.000000, 20
*KV		=  40
*MA		=  30
*LOW		=  0.000000
*HIGH		=  0.000000
*CTEMPER	=  0, 0.000000
*CTEMPER	=  1, 0.000000
*CTEMPER	=  2, 0.000000
*PAREX		=  0, 0.000000
*PAREX		=  1, 0.000000
*PAREX		=  2, 0.000000
*PAREX		=  3, 0.000000
*PAREX		=  4, 0.000000
*PAREX		=  5, 0.000000
*PAREX		=  6, 0.000000
*PAREX		=  7, 0.000000
*PAREX		=  8, 0.000000
*PAREX		=  9, 0.000000
*PAREX		=  10, 0.000000
*PAREX		=  11, 0.000000
*PAREX		=  12, 0.000000
*PAREX		=  13, 0.000000
*PAREX		=  14, 0.000000
*PAREX		=  15, 0.000000
*FULL_SCALE	=  100
*INDEX		=  0, 0, 0
*COUNT		=  2651
132, 146, 155, 144
171, 152, 145, 162
158, 136, 139, 158
141, 149, 145, 120
139, 145, 166, 141
150, 157, 156, 155
145, 154, 138, 150
157, 138, 171, 139
144, 158, 130, 142
144, 161, 175, 174
156, 174, 168, 155
158, 152, 156, 175
172, 170, 156, 168
165, 164, 183, 147
162, 165, 204, 140
216, 220, 208, 219
272, 273, 295, 298
404, 403, 410, 411
709, 748, 847, 997
5946, 7659, 10035, 13609
51640, 43968, 36678, 28190
1749, 1513, 1268, 1091
528, 434, 434, 415
314, 297, 301, 300
242, 233, 218, 231
221, 198, 232, 242
252, 229, 224, 244
273, 271, 256, 291
338, 324, 320, 361
463, 512, 542, 569
2851, 3674, 4809, 6303
29869, 25592, 22650, 19363
1301, 1063, 907, 806
446, 449, 428, 399
415, 371, 384, 388
504, 518, 502, 517
721, 735, 734, 823
1867, 2086, 2570, 3060
26859, 36920, 52003, 71584
39491, 27405, 17980, 12443
1833, 1639, 1323, 1247
653, 624, 558, 546
363, 318, 312, 293
260, 221, 249, 242
239, 215, 206, 223
178, 159, 176, 182
160, 184, 179, 185
150, 195, 203, 196
191, 180, 184, 202
180, 174, 165, 154
140, 154, 159, 152
156, 132, 162, 147
159, 141, 155, 137
158, 147, 164, 126
131, 138, 152, 150
140, 160, 136, 167
149, 154, 158, 155
131, 152, 140, 153
130, 148, 134, 137
142, 124, 128, 141
144, 152, 113, 148
136, 137, 116, 145
141, 137, 130, 155
148, 148, 133, 146
137, 153, 137, 154
156, 149, 119, 147
113, 160, 134, 138
159, 144, 126, 118
118, 119, 136, 142
146, 115, 135, 148
116, 135, 126, 143
148, 134, 150, 139
140, 146, 147, 124
126, 154, 163, 142
135, 152, 156, 162
135, 144, 118, 135
134, 140, 160, 166
159, 134, 133, 141
147, 139, 184, 143
155, 146, 128, 148
182, 175, 152, 181
187, 174, 181, 188
246, 226, 239, 220
291, 308, 314, 337
593, 710, 786, 957
5613, 7961, 11505, 16804
13986, 12694, 9959, 7181
835, 744, 673, 549
320, 267, 283, 272
232, 196, 187, 216
170, 183, 172, 158
172, 154, 164, 167
170, 140, 152, 160
158, 139, 162, 158
157, 138, 125, 145
135, 150, 151, 147
157, 147, 129, 144
160, 157, 156, 134
159, 145, 138, 117
152, 119, 151, 136
149, 146, 154, 153
130, 148, 128, 130
121, 156, 131, 128
136, 142, 141, 128
142, 128, 153, 153
151, 150, 136, 135
136, 165, 156, 160
110, 126, 140, 153
128, 147, 152, 153
156, 151, 175, 159
151, 174, 154, 150
164, 157, 182, 134
162, 157, 187, 171
166, 155, 133, 181
149, 131, 161, 167
163, 191, 157, 199
202, 214, 182, 187
226, 240, 237, 240
235, 216, 260, 268
281, 319, 291, 280
354, 343, 386, 378
606, 545, 618, 679
1710, 1951, 2291, 2576
22259, 26884, 28581, 27479
13038, 9986, 7457, 5585
1182, 1039, 928, 848
509, 452, 407, 432
332, 304, 321, 275
253, 258, 227, 290
201, 229, 221, 247
208, 204, 196, 225
184, 224, 212, 187
188, 201, 200, 192
190, 170, 170, 207
188, 177, 208, 182
185, 218, 196, 214
190, 212, 206, 224
173, 166, 180, 192
201, 195, 209, 171
193, 193, 191, 191
217, 194, 209, 208
217, 208, 234, 207
223, 216, 236, 223
263, 230, 241, 243
275, 288, 253, 269
277, 282, 292, 313
354, 403, 362, 346
495, 543, 561, 611
1322, 1528, 1780, 2003
13117, 17886, 22283, 25916
14794, 14740, 13111, 10421
1409, 1234, 1115, 1021
505, 497, 480, 469
352, 351, 333, 327
283, 305, 308, 256
252, 253, 238, 246
232, 220, 214, 241
221, 225, 200, 226
226, 231, 262, 215
223, 256, 225, 222
234, 252, 245, 221
246, 229, 257, 289
317, 312, 320, 323
616, 710, 772, 952
4664, 4200, 3561, 2906
1833, 1394, 1071, 878
408, 431, 418, 424
399, 377, 393, 386
529, 531, 553, 560
1098, 1132, 1319, 1435
6008, 7770, 10203, 13446
9824, 10261, 10808, 11187
2246, 1959, 1699, 1435
803, 740, 754, 729
962, 972, 1153, 1198
6868, 8446, 9371, 10013
5675, 5665, 5248, 4517
862, 792, 669, 653
387, 324, 344, 285
234, 256, 229, 245
228, 202, 213, 212
194, 205, 206, 201
181, 189, 170, 202
193, 183, 185, 180
179, 145, 176, 156
182, 170, 134, 168
163, 198, 177, 165
188, 181, 170, 188
204, 225, 217, 211
379, 466, 505, 615
1442, 1116, 938, 867
624, 470, 376, 328
217, 169, 162, 173
152, 159, 161, 156
147, 153, 138, 149
123, 131, 165, 134
138, 134, 147, 143
132, 118, 138, 103
136, 138, 121, 127
132, 140, 120, 136
136, 124, 127, 131
139, 131, 110, 136
149, 151, 125, 138
132, 136, 149, 125
132, 155, 170, 152
158, 157, 158, 158
200, 236, 224, 223
417, 426, 479, 563
3130, 3133, 2902, 2562
1816, 1726, 1484, 1309
295, 264, 264, 288
179, 179, 162, 144
139, 159, 135, 142
134, 135, 126, 119
113, 128, 105, 131
126, 124, 128, 117
108, 121, 131, 113
134, 120, 104, 127
92, 118, 135, 120
124, 107, 128, 99
123, 116, 149, 121
119, 131, 141
*END

*EOF