File: ZnO_STD_Fendas/ZnO_STD_202_G.ASC
*TYPE		=  Raw
*CLASS		=  ASCII CLASS
*SAMPLE		=  ZnO_STD_202_G
*COMMENT	=  ZnO_STD_202_GROSSO
*FNAME		=  ZnO_STD_202_G.raw
*DATE		=  15-Aug-13 16:04

*GROUP_COUNT	=  1
*GONIO		=  Ultima IV, 285
*ATTACHMENT	=  Standard Att.
*ASC		=  0, 0, 0.000000, 0.000000
*I_MONOCHRO	=  CBO, 0.000000
*C_MONOCHRO	=  Fixed Monochro.(U4), 3.354
*SLIT_NAME	=  0, DivSlit
*SLIT_NAME	=  1, DivH.L.Slit
*SLIT_NAME	=  2, SctSlit
*SLIT_NAME	=  3, RecSlit
*SLIT_NAME	=  4, Monochro RS
*COUNTER	=  Scintillation counter, 0
*POS_FORMAT	=  0
*SCAN_AXIS	=  2theta/theta
*MEAS_MODE	=  FT
*TARGET		=  29
*XRAY_CHAR	=  K-ALPHA1
*WAVE_LENGTH1	=  1.54056
*WAVE_LENGTH2	=  1.5444
*THICKNESS	=  0, 0.000000
*MU		=  0, 0.000000
*SCAN_MODE	=  2theta/theta
*SPEED_DIM	=  sec./step(FT)
*XUNIT		=  deg.
*YUNIT		=  counts
*SCALE_MODE	=  1
*REP_COUNT	=  1
*SE_COUNT	=  0
*STD_MATERIAL	=  Unknown, Unknown, 0.000000, 0.000000, 0.000000, 0.000000, 0.000000, 0.000000
*LATT_CONS	=  0, Unknown, Unknown, 0.000000, 0.000000, 0.000000, 0.000000, 0.000000, 0.000000
*SEC_COUNT	=  1
*TSPEC_SIZE	=  0
*EXTRA_SIZE	=  0
*MEMO		=

*BEGIN
*GROUP		=  0
*START		=  75.8
*STOP		=  78.2
*STEP		=  0.02
*OFFSET		=  0.000000
*SPEED		=  30
*SLIT_SPEC	=  0, 2/3deg., 2.33, 10
*SLIT_SPEC	=  1, 10mm, 8, 10
*SLIT_SPEC	=  2, 2/3deg., 0.89, 20
*SLIT_SPEC	=  3, 0.6mm, 0.6, 20
*SLIT_SPEC	=  4, No Use, 0.000000, 20
*KV		=  40
*MA		=  30
*LOW		=  0.000000
*HIGH		=  0.000000
*CTEMPER	=  0, 0.000000
*CTEMPER	=  1, 0.000000
*CTEMPER	=  2, 0.000000
*PAREX		=  0, 0.000000
*PAREX		=  1, 0.000000
*PAREX		=  2, 0.000000
*PAREX		=  3, 0.000000
*PAREX		=  4, 0.000000
*PAREX		=  5, 0.000000
*PAREX		=  6, 0.000000
*PAREX		=  7, 0.000000
*PAREX		=  8, 0.000000
*PAREX		=  9, 0.000000
*PAREX		=  10, 0.000000
*PAREX		=  11, 0.000000
*PAREX		=  12, 0.000000
*PAREX		=  13, 0.000000
*PAREX		=  14, 0.000000
*PAREX		=  15, 0.000000
*FULL_SCALE	=  100
*INDEX		=  0, 0, 0
*COUNT		=  121
598, 623, 643, 574
583, 609, 601, 635
622, 660, 630, 654
667, 658, 625, 646
678, 672, 679, 666
711, 712, 636, 697
690, 740, 744, 777
788, 769, 802, 833
867, 955, 923, 993
1053, 1194, 1140, 1203
1280, 1355, 1507, 1624
1741, 1863, 2184, 2526
2887, 3367, 4146, 5023
6336, 7969, 10254, 11911
13353, 13362, 12125, 10803
8991, 7614, 6578, 6195
6169, 6536, 7159, 7576
7490, 7331, 6363, 5535
4332, 3638, 2947, 2451
2153, 1856, 1666, 1531
1341, 1287, 1141, 1076
1055, 964, 930, 914
847, 794, 741, 748
718, 735, 701, 727
691, 696, 662, 650
666, 607, 616, 642
679, 572, 575, 650
626, 630, 565, 648
560, 542, 601, 594
548, 526, 561, 559
574
*END

*EOF